# columns ptv
# pressure GPa
# temperature K
# volume bohr^3
# nelectrons 3
# natoms 2
#    p(GPa)      T(K)   V(bohr^3) 
      0.0000       0.00   110.5957
     20.0000       0.00    93.1315
     40.0000       0.00    84.0087
     60.0000       0.00    77.8481
     80.0000       0.00    73.2225
    100.0000       0.00    69.5387
    120.0000       0.00    66.4929
    140.0000       0.00    63.9081
    160.0000       0.00    61.6716
    180.0000       0.00    59.7072
    200.0000       0.00    57.9607
    220.0000       0.00    56.3920
    240.0000       0.00    54.9710
    260.0000       0.00    53.6744
    280.0000       0.00    52.4838
    300.0000       0.00    51.3846
    320.0000       0.00    50.3649
    340.0000       0.00    49.4150
    360.0000       0.00    48.5268
    380.0000       0.00    47.6935
    400.0000       0.00    46.9094
    420.0000       0.00    46.1696
    440.0000       0.00    45.4697
    460.0000       0.00    44.8061
    480.0000       0.00    44.1755
    500.0000       0.00    43.5751


      0.0000      10.00   110.5957
     20.0000      10.00    93.1315
     40.0000      10.00    84.0087
     60.0000      10.00    77.8481
     80.0000      10.00    73.2225
    100.0000      10.00    69.5387
    120.0000      10.00    66.4929
    140.0000      10.00    63.9081
    160.0000      10.00    61.6716
    180.0000      10.00    59.7072
    200.0000      10.00    57.9607
    220.0000      10.00    56.3920
    240.0000      10.00    54.9710
    260.0000      10.00    53.6744
    280.0000      10.00    52.4838
    300.0000      10.00    51.3846
    320.0000      10.00    50.3649
    340.0000      10.00    49.4150
    360.0000      10.00    48.5268
    380.0000      10.00    47.6935
    400.0000      10.00    46.9094
    420.0000      10.00    46.1696
    440.0000      10.00    45.4697
    460.0000      10.00    44.8061
    480.0000      10.00    44.1755
    500.0000      10.00    43.5751


      0.0000      20.00   110.5958
     20.0000      20.00    93.1316
     40.0000      20.00    84.0088
     60.0000      20.00    77.8481
     80.0000      20.00    73.2225
    100.0000      20.00    69.5387
    120.0000      20.00    66.4929
    140.0000      20.00    63.9081
    160.0000      20.00    61.6716
    180.0000      20.00    59.7072
    200.0000      20.00    57.9607
    220.0000      20.00    56.3920
    240.0000      20.00    54.9710
    260.0000      20.00    53.6744
    280.0000      20.00    52.4838
    300.0000      20.00    51.3846
    320.0000      20.00    50.3650
    340.0000      20.00    49.4150
    360.0000      20.00    48.5268
    380.0000      20.00    47.6935
    400.0000      20.00    46.9094
    420.0000      20.00    46.1696
    440.0000      20.00    45.4697
    460.0000      20.00    44.8061
    480.0000      20.00    44.1755
    500.0000      20.00    43.5751


      0.0000      30.00   110.5968
     20.0000      30.00    93.1317
     40.0000      30.00    84.0089
     60.0000      30.00    77.8482
     80.0000      30.00    73.2226
    100.0000      30.00    69.5387
    120.0000      30.00    66.4929
    140.0000      30.00    63.9081
    160.0000      30.00    61.6716
    180.0000      30.00    59.7072
    200.0000      30.00    57.9606
    220.0000      30.00    56.3920
    240.0000      30.00    54.9710
    260.0000      30.00    53.6744
    280.0000      30.00    52.4838
    300.0000      30.00    51.3846
    320.0000      30.00    50.3650
    340.0000      30.00    49.4151
    360.0000      30.00    48.5268
    380.0000      30.00    47.6936
    400.0000      30.00    46.9095
    420.0000      30.00    46.1696
    440.0000      30.00    45.4697
    460.0000      30.00    44.8061
    480.0000      30.00    44.1755
    500.0000      30.00    43.5751


      0.0000      40.00   110.6007
     20.0000      40.00    93.1322
     40.0000      40.00    84.0091
     60.0000      40.00    77.8484
     80.0000      40.00    73.2227
    100.0000      40.00    69.5388
    120.0000      40.00    66.4929
    140.0000      40.00    63.9081
    160.0000      40.00    61.6716
    180.0000      40.00    59.7072
    200.0000      40.00    57.9606
    220.0000      40.00    56.3919
    240.0000      40.00    54.9710
    260.0000      40.00    53.6744
    280.0000      40.00    52.4838
    300.0000      40.00    51.3846
    320.0000      40.00    50.3650
    340.0000      40.00    49.4151
    360.0000      40.00    48.5269
    380.0000      40.00    47.6936
    400.0000      40.00    46.9095
    420.0000      40.00    46.1696
    440.0000      40.00    45.4698
    460.0000      40.00    44.8061
    480.0000      40.00    44.1755
    500.0000      40.00    43.5750


      0.0000      50.00   110.6096
     20.0000      50.00    93.1334
     40.0000      50.00    84.0095
     60.0000      50.00    77.8486
     80.0000      50.00    73.2228
    100.0000      50.00    69.5389
    120.0000      50.00    66.4930
    140.0000      50.00    63.9081
    160.0000      50.00    61.6716
    180.0000      50.00    59.7072
    200.0000      50.00    57.9606
    220.0000      50.00    56.3919
    240.0000      50.00    54.9710
    260.0000      50.00    53.6744
    280.0000      50.00    52.4838
    300.0000      50.00    51.3846
    320.0000      50.00    50.3650
    340.0000      50.00    49.4151
    360.0000      50.00    48.5269
    380.0000      50.00    47.6936
    400.0000      50.00    46.9095
    420.0000      50.00    46.1697
    440.0000      50.00    45.4698
    460.0000      50.00    44.8062
    480.0000      50.00    44.1755
    500.0000      50.00    43.5750


      0.0000      60.00   110.6244
     20.0000      60.00    93.1356
     40.0000      60.00    84.0103
     60.0000      60.00    77.8490
     80.0000      60.00    73.2231
    100.0000      60.00    69.5391
    120.0000      60.00    66.4931
    140.0000      60.00    63.9082
    160.0000      60.00    61.6716
    180.0000      60.00    59.7072
    200.0000      60.00    57.9606
    220.0000      60.00    56.3920
    240.0000      60.00    54.9710
    260.0000      60.00    53.6744
    280.0000      60.00    52.4838
    300.0000      60.00    51.3846
    320.0000      60.00    50.3650
    340.0000      60.00    49.4151
    360.0000      60.00    48.5269
    380.0000      60.00    47.6936
    400.0000      60.00    46.9096
    420.0000      60.00    46.1697
    440.0000      60.00    45.4698
    460.0000      60.00    44.8062
    480.0000      60.00    44.1755
    500.0000      60.00    43.5750


      0.0000      70.00   110.6456
     20.0000      70.00    93.1393
     40.0000      70.00    84.0116
     60.0000      70.00    77.8497
     80.0000      70.00    73.2236
    100.0000      70.00    69.5394
    120.0000      70.00    66.4933
    140.0000      70.00    63.9083
    160.0000      70.00    61.6718
    180.0000      70.00    59.7073
    200.0000      70.00    57.9607
    220.0000      70.00    56.3920
    240.0000      70.00    54.9710
    260.0000      70.00    53.6744
    280.0000      70.00    52.4838
    300.0000      70.00    51.3846
    320.0000      70.00    50.3650
    340.0000      70.00    49.4151
    360.0000      70.00    48.5269
    380.0000      70.00    47.6937
    400.0000      70.00    46.9096
    420.0000      70.00    46.1698
    440.0000      70.00    45.4699
    460.0000      70.00    44.8062
    480.0000      70.00    44.1755
    500.0000      70.00    43.5750


      0.0000      80.00   110.6730
     20.0000      80.00    93.1446
     40.0000      80.00    84.0136
     60.0000      80.00    77.8508
     80.0000      80.00    73.2243
    100.0000      80.00    69.5399
    120.0000      80.00    66.4937
    140.0000      80.00    63.9086
    160.0000      80.00    61.6720
    180.0000      80.00    59.7075
    200.0000      80.00    57.9608
    220.0000      80.00    56.3921
    240.0000      80.00    54.9711
    260.0000      80.00    53.6745
    280.0000      80.00    52.4839
    300.0000      80.00    51.3847
    320.0000      80.00    50.3650
    340.0000      80.00    49.4151
    360.0000      80.00    48.5269
    380.0000      80.00    47.6937
    400.0000      80.00    46.9096
    420.0000      80.00    46.1698
    440.0000      80.00    45.4699
    460.0000      80.00    44.8063
    480.0000      80.00    44.1755
    500.0000      80.00    43.5749


      0.0000      90.00   110.7061
     20.0000      90.00    93.1516
     40.0000      90.00    84.0164
     60.0000      90.00    77.8523
     80.0000      90.00    73.2252
    100.0000      90.00    69.5406
    120.0000      90.00    66.4942
    140.0000      90.00    63.9089
    160.0000      90.00    61.6723
    180.0000      90.00    59.7077
    200.0000      90.00    57.9610
    220.0000      90.00    56.3923
    240.0000      90.00    54.9712
    260.0000      90.00    53.6746
    280.0000      90.00    52.4839
    300.0000      90.00    51.3847
    320.0000      90.00    50.3650
    340.0000      90.00    49.4151
    360.0000      90.00    48.5269
    380.0000      90.00    47.6937
    400.0000      90.00    46.9096
    420.0000      90.00    46.1698
    440.0000      90.00    45.4700
    460.0000      90.00    44.8063
    480.0000      90.00    44.1755
    500.0000      90.00    43.5749


      0.0000     100.00   110.7445
     20.0000     100.00    93.1603
     40.0000     100.00    84.0200
     60.0000     100.00    77.8543
     80.0000     100.00    73.2266
    100.0000     100.00    69.5415
    120.0000     100.00    66.4949
    140.0000     100.00    63.9095
    160.0000     100.00    61.6727
    180.0000     100.00    59.7081
    200.0000     100.00    57.9613
    220.0000     100.00    56.3925
    240.0000     100.00    54.9714
    260.0000     100.00    53.6747
    280.0000     100.00    52.4840
    300.0000     100.00    51.3848
    320.0000     100.00    50.3650
    340.0000     100.00    49.4151
    360.0000     100.00    48.5269
    380.0000     100.00    47.6937
    400.0000     100.00    46.9097
    420.0000     100.00    46.1699
    440.0000     100.00    45.4700
    460.0000     100.00    44.8063
    480.0000     100.00    44.1756
    500.0000     100.00    43.5749


      0.0000     110.00   110.7874
     20.0000     110.00    93.1707
     40.0000     110.00    84.0245
     60.0000     110.00    77.8569
     80.0000     110.00    73.2283
    100.0000     110.00    69.5428
    120.0000     110.00    66.4958
    140.0000     110.00    63.9102
    160.0000     110.00    61.6733
    180.0000     110.00    59.7085
    200.0000     110.00    57.9617
    220.0000     110.00    56.3928
    240.0000     110.00    54.9717
    260.0000     110.00    53.6749
    280.0000     110.00    52.4842
    300.0000     110.00    51.3849
    320.0000     110.00    50.3651
    340.0000     110.00    49.4152
    360.0000     110.00    48.5270
    380.0000     110.00    47.6938
    400.0000     110.00    46.9097
    420.0000     110.00    46.1699
    440.0000     110.00    45.4700
    460.0000     110.00    44.8064
    480.0000     110.00    44.1756
    500.0000     110.00    43.5749


      0.0000     120.00   110.8345
     20.0000     120.00    93.1826
     40.0000     120.00    84.0298
     60.0000     120.00    77.8600
     80.0000     120.00    73.2304
    100.0000     120.00    69.5443
    120.0000     120.00    66.4970
    140.0000     120.00    63.9111
    160.0000     120.00    61.6740
    180.0000     120.00    59.7091
    200.0000     120.00    57.9622
    220.0000     120.00    56.3932
    240.0000     120.00    54.9720
    260.0000     120.00    53.6752
    280.0000     120.00    52.4844
    300.0000     120.00    51.3850
    320.0000     120.00    50.3652
    340.0000     120.00    49.4152
    360.0000     120.00    48.5270
    380.0000     120.00    47.6938
    400.0000     120.00    46.9098
    420.0000     120.00    46.1700
    440.0000     120.00    45.4701
    460.0000     120.00    44.8064
    480.0000     120.00    44.1756
    500.0000     120.00    43.5749


      0.0000     130.00   110.8852
     20.0000     130.00    93.1959
     40.0000     130.00    84.0360
     60.0000     130.00    77.8637
     80.0000     130.00    73.2329
    100.0000     130.00    69.5462
    120.0000     130.00    66.4984
    140.0000     130.00    63.9122
    160.0000     130.00    61.6749
    180.0000     130.00    59.7099
    200.0000     130.00    57.9628
    220.0000     130.00    56.3937
    240.0000     130.00    54.9724
    260.0000     130.00    53.6755
    280.0000     130.00    52.4847
    300.0000     130.00    51.3852
    320.0000     130.00    50.3654
    340.0000     130.00    49.4154
    360.0000     130.00    48.5271
    380.0000     130.00    47.6939
    400.0000     130.00    46.9099
    420.0000     130.00    46.1701
    440.0000     130.00    45.4702
    460.0000     130.00    44.8065
    480.0000     130.00    44.1757
    500.0000     130.00    43.5749


      0.0000     140.00   110.9391
     20.0000     140.00    93.2105
     40.0000     140.00    84.0429
     60.0000     140.00    77.8679
     80.0000     140.00    73.2359
    100.0000     140.00    69.5483
    120.0000     140.00    66.5000
    140.0000     140.00    63.9135
    160.0000     140.00    61.6759
    180.0000     140.00    59.7107
    200.0000     140.00    57.9635
    220.0000     140.00    56.3944
    240.0000     140.00    54.9729
    260.0000     140.00    53.6759
    280.0000     140.00    52.4850
    300.0000     140.00    51.3855
    320.0000     140.00    50.3656
    340.0000     140.00    49.4155
    360.0000     140.00    48.5273
    380.0000     140.00    47.6940
    400.0000     140.00    46.9100
    420.0000     140.00    46.1702
    440.0000     140.00    45.4703
    460.0000     140.00    44.8066
    480.0000     140.00    44.1757
    500.0000     140.00    43.5750


      0.0000     150.00   110.9958
     20.0000     150.00    93.2264
     40.0000     150.00    84.0506
     60.0000     150.00    77.8726
     80.0000     150.00    73.2392
    100.0000     150.00    69.5508
    120.0000     150.00    66.5020
    140.0000     150.00    63.9150
    160.0000     150.00    61.6772
    180.0000     150.00    59.7117
    200.0000     150.00    57.9644
    220.0000     150.00    56.3951
    240.0000     150.00    54.9735
    260.0000     150.00    53.6764
    280.0000     150.00    52.4854
    300.0000     150.00    51.3858
    320.0000     150.00    50.3658
    340.0000     150.00    49.4158
    360.0000     150.00    48.5275
    380.0000     150.00    47.6942
    400.0000     150.00    46.9102
    420.0000     150.00    46.1704
    440.0000     150.00    45.4705
    460.0000     150.00    44.8067
    480.0000     150.00    44.1759
    500.0000     150.00    43.5750


      0.0000     160.00   111.0550
     20.0000     160.00    93.2434
     40.0000     160.00    84.0589
     60.0000     160.00    77.8779
     80.0000     160.00    73.2429
    100.0000     160.00    69.5536
    120.0000     160.00    66.5041
    140.0000     160.00    63.9168
    160.0000     160.00    61.6786
    180.0000     160.00    59.7129
    200.0000     160.00    57.9654
    220.0000     160.00    56.3959
    240.0000     160.00    54.9742
    260.0000     160.00    53.6770
    280.0000     160.00    52.4859
    300.0000     160.00    51.3862
    320.0000     160.00    50.3662
    340.0000     160.00    49.4160
    360.0000     160.00    48.5277
    380.0000     160.00    47.6944
    400.0000     160.00    46.9104
    420.0000     160.00    46.1706
    440.0000     160.00    45.4707
    460.0000     160.00    44.8069
    480.0000     160.00    44.1760
    500.0000     160.00    43.5751


      0.0000     170.00   111.1164
     20.0000     170.00    93.2614
     40.0000     170.00    84.0680
     60.0000     170.00    77.8836
     80.0000     170.00    73.2470
    100.0000     170.00    69.5567
    120.0000     170.00    66.5066
    140.0000     170.00    63.9187
    160.0000     170.00    61.6801
    180.0000     170.00    59.7142
    200.0000     170.00    57.9665
    220.0000     170.00    56.3969
    240.0000     170.00    54.9750
    260.0000     170.00    53.6777
    280.0000     170.00    52.4865
    300.0000     170.00    51.3867
    320.0000     170.00    50.3666
    340.0000     170.00    49.4164
    360.0000     170.00    48.5280
    380.0000     170.00    47.6947
    400.0000     170.00    46.9106
    420.0000     170.00    46.1708
    440.0000     170.00    45.4709
    460.0000     170.00    44.8071
    480.0000     170.00    44.1762
    500.0000     170.00    43.5753


      0.0000     180.00   111.1799
     20.0000     180.00    93.2803
     40.0000     180.00    84.0776
     60.0000     180.00    77.8898
     80.0000     180.00    73.2514
    100.0000     180.00    69.5601
    120.0000     180.00    66.5092
    140.0000     180.00    63.9208
    160.0000     180.00    61.6819
    180.0000     180.00    59.7157
    200.0000     180.00    57.9677
    220.0000     180.00    56.3979
    240.0000     180.00    54.9760
    260.0000     180.00    53.6785
    280.0000     180.00    52.4871
    300.0000     180.00    51.3873
    320.0000     180.00    50.3670
    340.0000     180.00    49.4168
    360.0000     180.00    48.5284
    380.0000     180.00    47.6950
    400.0000     180.00    46.9109
    420.0000     180.00    46.1711
    440.0000     180.00    45.4711
    460.0000     180.00    44.8073
    480.0000     180.00    44.1764
    500.0000     180.00    43.5754


      0.0000     190.00   111.2451
     20.0000     190.00    93.3000
     40.0000     190.00    84.0877
     60.0000     190.00    77.8963
     80.0000     190.00    73.2562
    100.0000     190.00    69.5637
    120.0000     190.00    66.5121
    140.0000     190.00    63.9232
    160.0000     190.00    61.6838
    180.0000     190.00    59.7173
    200.0000     190.00    57.9691
    220.0000     190.00    56.3991
    240.0000     190.00    54.9770
    260.0000     190.00    53.6793
    280.0000     190.00    52.4878
    300.0000     190.00    51.3879
    320.0000     190.00    50.3676
    340.0000     190.00    49.4172
    360.0000     190.00    48.5288
    380.0000     190.00    47.6954
    400.0000     190.00    46.9113
    420.0000     190.00    46.1714
    440.0000     190.00    45.4714
    460.0000     190.00    44.8076
    480.0000     190.00    44.1766
    500.0000     190.00    43.5756


      0.0000     200.00   111.3120
     20.0000     200.00    93.3205
     40.0000     200.00    84.0984
     60.0000     200.00    77.9033
     80.0000     200.00    73.2613
    100.0000     200.00    69.5677
    120.0000     200.00    66.5152
    140.0000     200.00    63.9257
    160.0000     200.00    61.6859
    180.0000     200.00    59.7191
    200.0000     200.00    57.9706
    220.0000     200.00    56.4004
    240.0000     200.00    54.9781
    260.0000     200.00    53.6803
    280.0000     200.00    52.4887
    300.0000     200.00    51.3886
    320.0000     200.00    50.3682
    340.0000     200.00    49.4178
    360.0000     200.00    48.5293
    380.0000     200.00    47.6958
    400.0000     200.00    46.9117
    420.0000     200.00    46.1718
    440.0000     200.00    45.4718
    460.0000     200.00    44.8079
    480.0000     200.00    44.1769
    500.0000     200.00    43.5759


      0.0000     210.00   111.3804
     20.0000     210.00    93.3416
     40.0000     210.00    84.1095
     60.0000     210.00    77.9106
     80.0000     210.00    73.2667
    100.0000     210.00    69.5718
    120.0000     210.00    66.5185
    140.0000     210.00    63.9284
    160.0000     210.00    61.6881
    180.0000     210.00    59.7209
    200.0000     210.00    57.9722
    220.0000     210.00    56.4018
    240.0000     210.00    54.9793
    260.0000     210.00    53.6813
    280.0000     210.00    52.4896
    300.0000     210.00    51.3894
    320.0000     210.00    50.3689
    340.0000     210.00    49.4184
    360.0000     210.00    48.5298
    380.0000     210.00    47.6963
