# columns ptv
# pressure GPa
# temperature K
# volume bohr^3
# nelectrons 8
# natoms 2
#  p(GPa)      T(K)   V(bohr^3) 
      0.0000       0.00    76.5627  
     20.0000       0.00    73.4516  
     40.0000       0.00    70.8447  
     60.0000       0.00    68.6052  
     80.0000       0.00    66.6453  
    100.0000       0.00    64.9049  
    120.0000       0.00    63.3415  
    140.0000       0.00    61.9236  
    160.0000       0.00    60.6276  
    180.0000       0.00    59.4349  
    200.0000       0.00    58.3312  
    220.0000       0.00    57.3047  
    240.0000       0.00    56.3459  
    260.0000       0.00    55.4469  
    280.0000       0.00    54.6013  
    300.0000       0.00    53.8035  
    320.0000       0.00    53.0488  
    340.0000       0.00    52.3331  
    360.0000       0.00    51.6529  
    380.0000       0.00    51.0053  
    400.0000       0.00    50.3874  
    420.0000       0.00    49.7969  
    440.0000       0.00    49.2317  
    460.0000       0.00    48.6899  
    480.0000       0.00    48.1697  
    500.0000       0.00    47.6696  


      0.0000      50.00    76.5627  
     20.0000      50.00    73.4516  
     40.0000      50.00    70.8447  
     60.0000      50.00    68.6052  
     80.0000      50.00    66.6453  
    100.0000      50.00    64.9049  
    120.0000      50.00    63.3415  
    140.0000      50.00    61.9236  
    160.0000      50.00    60.6276  
    180.0000      50.00    59.4349  
    200.0000      50.00    58.3312  
    220.0000      50.00    57.3047  
    240.0000      50.00    56.3459  
    260.0000      50.00    55.4469  
    280.0000      50.00    54.6013  
    300.0000      50.00    53.8035  
    320.0000      50.00    53.0488  
    340.0000      50.00    52.3331  
    360.0000      50.00    51.6529  
    380.0000      50.00    51.0053  
    400.0000      50.00    50.3874  
    420.0000      50.00    49.7969  
    440.0000      50.00    49.2317  
    460.0000      50.00    48.6899  
    480.0000      50.00    48.1697  
    500.0000      50.00    47.6696  


      0.0000     100.00    76.5629  
     20.0000     100.00    73.4518  
     40.0000     100.00    70.8448  
     60.0000     100.00    68.6053  
     80.0000     100.00    66.6454  
    100.0000     100.00    64.9050  
    120.0000     100.00    63.3415  
    140.0000     100.00    61.9237  
    160.0000     100.00    60.6276  
    180.0000     100.00    59.4350  
    200.0000     100.00    58.3312  
    220.0000     100.00    57.3047  
    240.0000     100.00    56.3459  
    260.0000     100.00    55.4470  
    280.0000     100.00    54.6013  
    300.0000     100.00    53.8035  
    320.0000     100.00    53.0488  
    340.0000     100.00    52.3331  
    360.0000     100.00    51.6529  
    380.0000     100.00    51.0053  
    400.0000     100.00    50.3874  
    420.0000     100.00    49.7969  
    440.0000     100.00    49.2317  
    460.0000     100.00    48.6899  
    480.0000     100.00    48.1697  
    500.0000     100.00    47.6696  


      0.0000     150.00    76.5639  
     20.0000     150.00    73.4525  
     40.0000     150.00    70.8453  
     60.0000     150.00    68.6057  
     80.0000     150.00    66.6457  
    100.0000     150.00    64.9053  
    120.0000     150.00    63.3418  
    140.0000     150.00    61.9239  
    160.0000     150.00    60.6278  
    180.0000     150.00    59.4351  
    200.0000     150.00    58.3314  
    220.0000     150.00    57.3048  
    240.0000     150.00    56.3460  
    260.0000     150.00    55.4471  
    280.0000     150.00    54.6014  
    300.0000     150.00    53.8036  
    320.0000     150.00    53.0488  
    340.0000     150.00    52.3331  
    360.0000     150.00    51.6530  
    380.0000     150.00    51.0053  
    400.0000     150.00    50.3874  
    420.0000     150.00    49.7969  
    440.0000     150.00    49.2317  
    460.0000     150.00    48.6899  
    480.0000     150.00    48.1697  
    500.0000     150.00    47.6696  


      0.0000     200.00    76.5667  
     20.0000     200.00    73.4546  
     40.0000     200.00    70.8468  
     60.0000     200.00    68.6069  
     80.0000     200.00    66.6467  
    100.0000     200.00    64.9061  
    120.0000     200.00    63.3425  
    140.0000     200.00    61.9244  
    160.0000     200.00    60.6283  
    180.0000     200.00    59.4356  
    200.0000     200.00    58.3318  
    220.0000     200.00    57.3052  
    240.0000     200.00    56.3463  
    260.0000     200.00    55.4473  
    280.0000     200.00    54.6017  
    300.0000     200.00    53.8038  
    320.0000     200.00    53.0490  
    340.0000     200.00    52.3333  
    360.0000     200.00    51.6531  
    380.0000     200.00    51.0054  
    400.0000     200.00    50.3875  
    420.0000     200.00    49.7970  
    440.0000     200.00    49.2318  
    460.0000     200.00    48.6900  
    480.0000     200.00    48.1698  
    500.0000     200.00    47.6697  


      0.0000     250.00    76.5728  
     20.0000     250.00    73.4589  
     40.0000     250.00    70.8502  
     60.0000     250.00    68.6095  
     80.0000     250.00    66.6487  
    100.0000     250.00    64.9078  
    120.0000     250.00    63.3439  
    140.0000     250.00    61.9257  
    160.0000     250.00    60.6293  
    180.0000     250.00    59.4365  
    200.0000     250.00    58.3326  
    220.0000     250.00    57.3059  
    240.0000     250.00    56.3470  
    260.0000     250.00    55.4479  
    280.0000     250.00    54.6022  
    300.0000     250.00    53.8043  
    320.0000     250.00    53.0494  
    340.0000     250.00    52.3336  
    360.0000     250.00    51.6534  
    380.0000     250.00    51.0057  
    400.0000     250.00    50.3878  
    420.0000     250.00    49.7972  
    440.0000     250.00    49.2320  
    460.0000     250.00    48.6901  
    480.0000     250.00    48.1699  
    500.0000     250.00    47.6698  


      0.0000     300.00    76.5832  
     20.0000     300.00    73.4665  
     40.0000     300.00    70.8559  
     60.0000     300.00    68.6140  
     80.0000     300.00    66.6524  
    100.0000     300.00    64.9108  
    120.0000     300.00    63.3464  
    140.0000     300.00    61.9279  
    160.0000     300.00    60.6312  
    180.0000     300.00    59.4381  
    200.0000     300.00    58.3340  
    220.0000     300.00    57.3072  
    240.0000     300.00    56.3481  
    260.0000     300.00    55.4489  
    280.0000     300.00    54.6031  
    300.0000     300.00    53.8050  
    320.0000     300.00    53.0501  
    340.0000     300.00    52.3343  
    360.0000     300.00    51.6540  
    380.0000     300.00    51.0062  
    400.0000     300.00    50.3882  
    420.0000     300.00    49.7976  
    440.0000     300.00    49.2323  
    460.0000     300.00    48.6904  
    480.0000     300.00    48.1702  
    500.0000     300.00    47.6700  


      0.0000     350.00    76.5983  
     20.0000     350.00    73.4778  
     40.0000     350.00    70.8647  
     60.0000     350.00    68.6210  
     80.0000     350.00    66.6581  
    100.0000     350.00    64.9155  
    120.0000     350.00    63.3504  
    140.0000     350.00    61.9313  
    160.0000     350.00    60.6342  
    180.0000     350.00    59.4408  
    200.0000     350.00    58.3363  
    220.0000     350.00    57.3092  
    240.0000     350.00    56.3499  
    260.0000     350.00    55.4505  
    280.0000     350.00    54.6045  
    300.0000     350.00    53.8063  
    320.0000     350.00    53.0512  
    340.0000     350.00    52.3353  
    360.0000     350.00    51.6549  
    380.0000     350.00    51.0070  
    400.0000     350.00    50.3889  
    420.0000     350.00    49.7982  
    440.0000     350.00    49.2329  
    460.0000     350.00    48.6909  
    480.0000     350.00    48.1706  
    500.0000     350.00    47.6705  


      0.0000     400.00    76.6183  
     20.0000     400.00    73.4930  
     40.0000     400.00    70.8766  
     60.0000     400.00    68.6306  
     80.0000     400.00    66.6660  
    100.0000     400.00    64.9221  
    120.0000     400.00    63.3561  
    140.0000     400.00    61.9362  
    160.0000     400.00    60.6385  
    180.0000     400.00    59.4445  
    200.0000     400.00    58.3396  
    220.0000     400.00    57.3121  
    240.0000     400.00    56.3525  
    260.0000     400.00    55.4528  
    280.0000     400.00    54.6066  
    300.0000     400.00    53.8082  
    320.0000     400.00    53.0529  
    340.0000     400.00    52.3368  
    360.0000     400.00    51.6562  
    380.0000     400.00    51.0082  
    400.0000     400.00    50.3900  
    420.0000     400.00    49.7992  
    440.0000     400.00    49.2338  
    460.0000     400.00    48.6917  
    480.0000     400.00    48.1714  
    500.0000     400.00    47.6711  


      0.0000     450.00    76.6429  
     20.0000     450.00    73.5119  
     40.0000     450.00    70.8916  
     60.0000     450.00    68.6428  
     80.0000     450.00    66.6761  
    100.0000     450.00    64.9307  
    120.0000     450.00    63.3635  
    140.0000     450.00    61.9426  
    160.0000     450.00    60.6441  
    180.0000     450.00    59.4494  
    200.0000     450.00    58.3440  
    220.0000     450.00    57.3161  
    240.0000     450.00    56.3561  
    260.0000     450.00    55.4560  
    280.0000     450.00    54.6095  
    300.0000     450.00    53.8108  
    320.0000     450.00    53.0553  
    340.0000     450.00    52.3389  
    360.0000     450.00    51.6581  
    380.0000     450.00    51.0099  
    400.0000     450.00    50.3916  
    420.0000     450.00    49.8007  
    440.0000     450.00    49.2351  
    460.0000     450.00    48.6930  
    480.0000     450.00    48.1725  
    500.0000     450.00    47.6722  


      0.0000     500.00    76.6716  
     20.0000     500.00    73.5343  
     40.0000     500.00    70.9095  
     60.0000     500.00    68.6575  
     80.0000     500.00    66.6884  
    100.0000     500.00    64.9412  
    120.0000     500.00    63.3726  
    140.0000     500.00    61.9505  
    160.0000     500.00    60.6511  
    180.0000     500.00    59.4557  
    200.0000     500.00    58.3496  
    220.0000     500.00    57.3211  
    240.0000     500.00    56.3606  
    260.0000     500.00    55.4601  
    280.0000     500.00    54.6132  
    300.0000     500.00    53.8141  
    320.0000     500.00    53.0583  
    340.0000     500.00    52.3417  
    360.0000     500.00    51.6607  
    380.0000     500.00    51.0123  
    400.0000     500.00    50.3937  
    420.0000     500.00    49.8026  
    440.0000     500.00    49.2369  
    460.0000     500.00    48.6946  
    480.0000     500.00    48.1740  
    500.0000     500.00    47.6736  


      0.0000     550.00    76.7041  
     20.0000     550.00    73.5598  
     40.0000     550.00    70.9301  
     60.0000     550.00    68.6745  
     80.0000     550.00    66.7028  
    100.0000     550.00    64.9536  
    120.0000     550.00    63.3833  
    140.0000     550.00    61.9600  
    160.0000     550.00    60.6595  
    180.0000     550.00    59.4632  
    200.0000     550.00    58.3563  
    220.0000     550.00    57.3272  
    240.0000     550.00    56.3661  
    260.0000     550.00    55.4651  
    280.0000     550.00    54.6177  
    300.0000     550.00    53.8183  
    320.0000     550.00    53.0621  
    340.0000     550.00    52.3451  
    360.0000     550.00    51.6639  
    380.0000     550.00    51.0152  
    400.0000     550.00    50.3964  
    420.0000     550.00    49.8051  
    440.0000     550.00    49.2392  
    460.0000     550.00    48.6967  
    480.0000     550.00    48.1760  
    500.0000     550.00    47.6754  


      0.0000     600.00    76.7398  
     20.0000     600.00    73.5881  
     40.0000     600.00    70.9531  
     60.0000     600.00    68.6937  
     80.0000     600.00    66.7191  
    100.0000     600.00    64.9677  
    120.0000     600.00    63.3956  
    140.0000     600.00    61.9708  
    160.0000     600.00    60.6692  
    180.0000     600.00    59.4719  
    200.0000     600.00    58.3642  
    220.0000     600.00    57.3343  
    240.0000     600.00    56.3725  
    260.0000     600.00    55.4710  
    280.0000     600.00    54.6231  
    300.0000     600.00    53.8232  
    320.0000     600.00    53.0666  
    340.0000     600.00    52.3493  
    360.0000     600.00    51.6677  
    380.0000     600.00    51.0187  
    400.0000     600.00    50.3997  
    420.0000     600.00    49.8082  
    440.0000     600.00    49.2420  
    460.0000     600.00    48.6994  
    480.0000     600.00    48.1785  
    500.0000     600.00    47.6777  


      0.0000     650.00    76.7783  
     20.0000     650.00    73.6188  
     40.0000     650.00    70.9782  
     60.0000     650.00    68.7147  
     80.0000     650.00    66.7371  
    100.0000     650.00    64.9832  
    120.0000     650.00    63.4093  
    140.0000     650.00    61.9830  
    160.0000     650.00    60.6800  
    180.0000     650.00    59.4817  
    200.0000     650.00    58.3731  
    220.0000     650.00    57.3424  
    240.0000     650.00    56.3799  
    260.0000     650.00    55.4778  
    280.0000     650.00    54.6293  
    300.0000     650.00    53.8289  
    320.0000     650.00    53.0719  
    340.0000     650.00    52.3542  
    360.0000     650.00    51.6722  
    380.0000     650.00    51.0229  
    400.0000     650.00    50.4035  
    420.0000     650.00    49.8118  
    440.0000     650.00    49.2454  
    460.0000     650.00    48.7025  
    480.0000     650.00    48.1814  
    500.0000     650.00    47.6805  


      0.0000     700.00    76.8193  
     20.0000     700.00    73.6516  
     40.0000     700.00    71.0052  
     60.0000     700.00    68.7375  
     80.0000     700.00    66.7566  
    100.0000     700.00    65.0002  
    120.0000     700.00    63.4242  
    140.0000     700.00    61.9963  
    160.0000     700.00    60.6920  
    180.0000     700.00    59.4925  
    200.0000     700.00    58.3829  
    220.0000     700.00    57.3513  
    240.0000     700.00    56.3881  
    260.0000     700.00    55.4853  
    280.0000     700.00    54.6362  
    300.0000     700.00    53.8353  
    320.0000     700.00    53.0778  
    340.0000     700.00    52.3596  
    360.0000     700.00    51.6773  
    380.0000     700.00    51.0276  
    400.0000     700.00    50.4080  
    420.0000     700.00    49.8159  
    440.0000     700.00    49.2493  
    460.0000     700.00    48.7061  
    480.0000     700.00    48.1848  
    500.0000     700.00    47.6837  


      0.0000     750.00    76.8625  
     20.0000     750.00    73.6864  
     40.0000     750.00    71.0339  
     60.0000     750.00    68.7617  
     80.0000     750.00    66.7774  
    100.0000     750.00    65.0184  
    120.0000     750.00    63.4404  
    140.0000     750.00    62.0107  
    160.0000     750.00    60.7050  
    180.0000     750.00    59.5042  
    200.0000     750.00    58.3936  
    220.0000     750.00    57.3611  
    240.0000     750.00    56.3971  
    260.0000     750.00    55.4936  
    280.0000     750.00    54.6439  
    300.0000     750.00    53.8424  
    320.0000     750.00    53.0844  
    340.0000     750.00    52.3657  
    360.0000     750.00    51.6829  
    380.0000     750.00    51.0329  
    400.0000     750.00    50.4129  
    420.0000     750.00    49.8205  
    440.0000     750.00    49.2536  
    460.0000     750.00    48.7102  
    480.0000     750.00    48.1887  
    500.0000     750.00    47.6874  


      0.0000     800.00    76.9075  
     20.0000     800.00    73.7227  
     40.0000     800.00    71.0640  
     60.0000     800.00    68.7872  
     80.0000     800.00    66.7994  
    100.0000     800.00    65.0377  
    120.0000     800.00    63.4575  
    140.0000     800.00    62.0261  
    160.0000     800.00    60.7188  
    180.0000     800.00    59.5168  
    200.0000     800.00    58.4051  
    220.0000     800.00    57.3717  
    240.0000     800.00    56.4068  
    260.0000     800.00    55.5025  
    280.0000     800.00    54.6522  
    300.0000     800.00    53.8501  
    320.0000     800.00    53.0915  
    340.0000     800.00    52.3724  
    360.0000     800.00    51.6892  
    380.0000     800.00    51.0387  
    400.0000     800.00    50.4183  
    420.0000     800.00    49.8256  
    440.0000     800.00    49.2584  
    460.0000     800.00    48.7148  
    480.0000     800.00    48.1930  
    500.0000     800.00    47.6914  


      0.0000     850.00    76.9543  
     20.0000     850.00    73.7606  
     40.0000     850.00    71.0955  
     60.0000     850.00    68.8139  
     80.0000     850.00    66.8226  
    100.0000     850.00    65.0580  
    120.0000     850.00    63.4755  
    140.0000     850.00    62.0423  
    160.0000     850.00    60.7335  
    180.0000     850.00    59.5302  
    200.0000     850.00    58.4173  
    220.0000     850.00    57.3829  
    240.0000     850.00    56.4172  
    260.0000     850.00    55.5121  
    280.0000     850.00    54.6611  
    300.0000     850.00    53.8583  
    320.0000     850.00    53.0992  
    340.0000     850.00    52.3796  
    360.0000     850.00    51.6959  
    380.0000     850.00    51.0450  
    400.0000     850.00    50.4242  
    420.0000     850.00    49.8312  
    440.0000     850.00    49.2636  
    460.0000     850.00    48.7197  
    480.0000     850.00    48.1976  
    500.0000     850.00    47.6959  


      0.0000     900.00    77.0025  
     20.0000     900.00    73.7997  
     40.0000     900.00    71.1281  
     60.0000     900.00    68.8417  
     80.0000     900.00    66.8466  
    100.0000     900.00    65.0792  
    120.0000     900.00    63.4944  
    140.0000     900.00    62.0592  
    160.0000     900.00    60.7489  
    180.0000     900.00    59.5442  
    200.0000     900.00    58.4302  
    220.0000     900.00    57.3948  
    240.0000     900.00    56.4282  
    260.0000     900.00    55.5223  
    280.0000     900.00    54.6705  
    300.0000     900.00    53.8671  
    320.0000     900.00    53.1074  
    340.0000     900.00    52.3872  
    360.0000     900.00    51.7030  
    380.0000     900.00    51.0517  
    400.0000     900.00    50.4306  
    420.0000     900.00    49.8371  
    440.0000     900.00    49.2693  
    460.0000     900.00    48.7250  
    480.0000     900.00    48.2027  
    500.0000     900.00    47.7007  


      0.0000     950.00    77.0520  
     20.0000     950.00    73.8400  
     40.0000     950.00    71.1617  
     60.0000     950.00    68.8703  
     80.0000     950.00    66.8715  
    100.0000     950.00    65.1012  
    120.0000     950.00    63.5140  
    140.0000     950.00    62.0769  
    160.0000     950.00    60.7649  
    180.0000     950.00    59.5589  
    200.0000     950.00    58.4437  
    220.0000     950.00    57.4072  
    240.0000     950.00    56.4397  
    260.0000     950.00    55.5330  
    280.0000     950.00    54.6804  
    300.0000     950.00    53.8764  
    320.0000     950.00    53.1160  
    340.0000     950.00    52.3953  
    360.0000     950.00    51.7106  
    380.0000     950.00    51.0588  
    400.0000     950.00    50.4373  
    420.0000     950.00    49.8435  
    440.0000     950.00    49.2753  
    460.0000     950.00    48.7307  
    480.0000     950.00    48.2081  
    500.0000     950.00    47.7058  


      0.0000    1000.00    77.1027  
     20.0000    1000.00    73.8814  
     40.0000    1000.00    71.1962  
     60.0000    1000.00    68.8998  
     80.0000    1000.00    66.8972  
    100.0000    1000.00    65.1238  
    120.0000    1000.00    63.5343  
    140.0000    1000.00    62.0952  
    160.0000    1000.00    60.7816  
    180.0000    1000.00    59.5741  
    200.0000    1000.00    58.4577  
    220.0000    1000.00    57.4201  
    240.0000    1000.00    56.4516  
    260.0000    1000.00    55.5441  
    280.0000    1000.00    54.6908  
    300.0000    1000.00    53.8861  
