# columns ptv
# pressure GPa
# temperature K
# volume bohr^3
# nelectrons 20
# natoms 2
# 01:p(GPa) 02:T(K) 03:V(bohr^3)
      0.0000       0.00   125.4823  
     20.0000       0.00   113.7169  
     40.0000       0.00   105.8662  
     60.0000       0.00   100.0141  
     80.0000       0.00    95.3756  
    100.0000       0.00    91.5507  
    120.0000       0.00    88.3079  
    140.0000       0.00    85.5014  
    160.0000       0.00    83.0335  
    180.0000       0.00    80.8357  
    200.0000       0.00    78.8581  
    220.0000       0.00    77.0632  
    240.0000       0.00    75.4223  
    260.0000       0.00    73.9129  
    280.0000       0.00    72.5167  
    300.0000       0.00    71.2194  
    320.0000       0.00    70.0087  
    340.0000       0.00    68.8747  
    360.0000       0.00    67.8091  
    380.0000       0.00    66.8047  
    400.0000       0.00    65.8553  
    420.0000       0.00    64.9559  
    440.0000       0.00    64.1018  
    460.0000       0.00    63.2890  
    480.0000       0.00    62.5141  
    500.0000       0.00    61.7740  


      0.0000      50.00   125.4833  
     20.0000      50.00   113.7173  
     40.0000      50.00   105.8663  
     60.0000      50.00   100.0142  
     80.0000      50.00    95.3757  
    100.0000      50.00    91.5508  
    120.0000      50.00    88.3079  
    140.0000      50.00    85.5014  
    160.0000      50.00    83.0335  
    180.0000      50.00    80.8357  
    200.0000      50.00    78.8581  
    220.0000      50.00    77.0632  
    240.0000      50.00    75.4224  
    260.0000      50.00    73.9129  
    280.0000      50.00    72.5168  
    300.0000      50.00    71.2194  
    320.0000      50.00    70.0087  
    340.0000      50.00    68.8747  
    360.0000      50.00    67.8091  
    380.0000      50.00    66.8047  
    400.0000      50.00    65.8554  
    420.0000      50.00    64.9559  
    440.0000      50.00    64.1018  
    460.0000      50.00    63.2890  
    480.0000      50.00    62.5141  
    500.0000      50.00    61.7740  


      0.0000     100.00   125.5032  
     20.0000     100.00   113.7243  
     40.0000     100.00   105.8696  
     60.0000     100.00   100.0160  
     80.0000     100.00    95.3768  
    100.0000     100.00    91.5515  
    120.0000     100.00    88.3085  
    140.0000     100.00    85.5018  
    160.0000     100.00    83.0339  
    180.0000     100.00    80.8360  
    200.0000     100.00    78.8584  
    220.0000     100.00    77.0635  
    240.0000     100.00    75.4226  
    260.0000     100.00    73.9131  
    280.0000     100.00    72.5170  
    300.0000     100.00    71.2196  
    320.0000     100.00    70.0089  
    340.0000     100.00    68.8750  
    360.0000     100.00    67.8093  
    380.0000     100.00    66.8049  
    400.0000     100.00    65.8555  
    420.0000     100.00    64.9561  
    440.0000     100.00    64.1019  
    460.0000     100.00    63.2891  
    480.0000     100.00    62.5142  
    500.0000     100.00    61.7741  


      0.0000     150.00   125.5713  
     20.0000     150.00   113.7529  
     40.0000     150.00   105.8848  
     60.0000     150.00   100.0251  
     80.0000     150.00    95.3828  
    100.0000     150.00    91.5558  
    120.0000     150.00    88.3117  
    140.0000     150.00    85.5045  
    160.0000     150.00    83.0361  
    180.0000     150.00    80.8379  
    200.0000     150.00    78.8601  
    220.0000     150.00    77.0650  
    240.0000     150.00    75.4240  
    260.0000     150.00    73.9144  
    280.0000     150.00    72.5181  
    300.0000     150.00    71.2206  
    320.0000     150.00    70.0099  
    340.0000     150.00    68.8758  
    360.0000     150.00    67.8101  
    380.0000     150.00    66.8056  
    400.0000     150.00    65.8562  
    420.0000     150.00    64.9567  
    440.0000     150.00    64.1025  
    460.0000     150.00    63.2896  
    480.0000     150.00    62.5147  
    500.0000     150.00    61.7745  


      0.0000     200.00   125.6892  
     20.0000     200.00   113.8087  
     40.0000     200.00   105.9172  
     60.0000     200.00   100.0461  
     80.0000     200.00    95.3975  
    100.0000     200.00    91.5667  
    120.0000     200.00    88.3202  
    140.0000     200.00    85.5113  
    160.0000     200.00    83.0418  
    180.0000     200.00    80.8429  
    200.0000     200.00    78.8644  
    220.0000     200.00    77.0688  
    240.0000     200.00    75.4273  
    260.0000     200.00    73.9174  
    280.0000     200.00    72.5208  
    300.0000     200.00    71.2231  
    320.0000     200.00    70.0121  
    340.0000     200.00    68.8778  
    360.0000     200.00    67.8119  
    380.0000     200.00    66.8072  
    400.0000     200.00    65.8577  
    420.0000     200.00    64.9580  
    440.0000     200.00    64.1037  
    460.0000     200.00    63.2908  
    480.0000     200.00    62.5157  
    500.0000     200.00    61.7755  


      0.0000     250.00   125.8460  
     20.0000     250.00   113.8885  
     40.0000     250.00   105.9662  
     60.0000     250.00   100.0794  
     80.0000     250.00    95.4217  
    100.0000     250.00    91.5852  
    120.0000     250.00    88.3350  
    140.0000     250.00    85.5235  
    160.0000     250.00    83.0521  
    180.0000     250.00    80.8517  
    200.0000     250.00    78.8720  
    220.0000     250.00    77.0755  
    240.0000     250.00    75.4333  
    260.0000     250.00    73.9227  
    280.0000     250.00    72.5257  
    300.0000     250.00    71.2274  
    320.0000     250.00    70.0160  
    340.0000     250.00    68.8814  
    360.0000     250.00    67.8152  
    380.0000     250.00    66.8102  
    400.0000     250.00    65.8604  
    420.0000     250.00    64.9606  
    440.0000     250.00    64.1061  
    460.0000     250.00    63.2929  
    480.0000     250.00    62.5177  
    500.0000     250.00    61.7773  


      0.0000     300.00   126.0310  
     20.0000     300.00   113.9869  
     40.0000     300.00   106.0290  
     60.0000     300.00   100.1233  
     80.0000     300.00    95.4545  
    100.0000     300.00    91.6109  
    120.0000     300.00    88.3558  
    140.0000     300.00    85.5409  
    160.0000     300.00    83.0669  
    180.0000     300.00    80.8645  
    200.0000     300.00    78.8833  
    220.0000     300.00    77.0855  
    240.0000     300.00    75.4423  
    260.0000     300.00    73.9307  
    280.0000     300.00    72.5329  
    300.0000     300.00    71.2340  
    320.0000     300.00    70.0220  
    340.0000     300.00    68.8869  
    360.0000     300.00    67.8202  
    380.0000     300.00    66.8148  
    400.0000     300.00    65.8647  
    420.0000     300.00    64.9644  
    440.0000     300.00    64.1096  
    460.0000     300.00    63.2962  
    480.0000     300.00    62.5208  
    500.0000     300.00    61.7802  


      0.0000     350.00   126.2365  
     20.0000     350.00   114.0994  
     40.0000     350.00   106.1025  
     60.0000     350.00   100.1759  
     80.0000     350.00    95.4945  
    100.0000     350.00    91.6427  
    120.0000     350.00    88.3820  
    140.0000     350.00    85.5629  
    160.0000     350.00    83.0858  
    180.0000     350.00    80.8810  
    200.0000     350.00    78.8979  
    220.0000     350.00    77.0986  
    240.0000     350.00    75.4540  
    260.0000     350.00    73.9413  
    280.0000     350.00    72.5425  
    300.0000     350.00    71.2428  
    320.0000     350.00    70.0300  
    340.0000     350.00    68.8942  
    360.0000     350.00    67.8269  
    380.0000     350.00    66.8210  
    400.0000     350.00    65.8704  
    420.0000     350.00    64.9698  
    440.0000     350.00    64.1146  
    460.0000     350.00    63.3008  
    480.0000     350.00    62.5250  
    500.0000     350.00    61.7841  


      0.0000     400.00   126.4575  
     20.0000     400.00   114.2225  
     40.0000     400.00   106.1842  
     60.0000     400.00   100.2352  
     80.0000     400.00    95.5401  
    100.0000     400.00    91.6794  
    120.0000     400.00    88.4125  
    140.0000     400.00    85.5889  
    160.0000     400.00    83.1083  
    180.0000     400.00    80.9008  
    200.0000     400.00    78.9155  
    220.0000     400.00    77.1144  
    240.0000     400.00    75.4682  
    260.0000     400.00    73.9543  
    280.0000     400.00    72.5543  
    300.0000     400.00    71.2536  
    320.0000     400.00    70.0399  
    340.0000     400.00    68.9034  
    360.0000     400.00    67.8354  
    380.0000     400.00    66.8289  
    400.0000     400.00    65.8777  
    420.0000     400.00    64.9765  
    440.0000     400.00    64.1209  
    460.0000     400.00    63.3067  
    480.0000     400.00    62.5305  
    500.0000     400.00    61.7893  


      0.0000     450.00   126.6905  
     20.0000     450.00   114.3538  
     40.0000     450.00   106.2723  
     60.0000     450.00   100.2998  
     80.0000     450.00    95.5904  
    100.0000     450.00    91.7201  
    120.0000     450.00    88.4466  
    140.0000     450.00    85.6181  
    160.0000     450.00    83.1338  
    180.0000     450.00    80.9234  
    200.0000     450.00    78.9356  
    220.0000     450.00    77.1325  
    240.0000     450.00    75.4847  
    260.0000     450.00    73.9693  
    280.0000     450.00    72.5680  
    300.0000     450.00    71.2662  
    320.0000     450.00    70.0516  
    340.0000     450.00    68.9141  
    360.0000     450.00    67.8454  
    380.0000     450.00    66.8381  
    400.0000     450.00    65.8863  
    420.0000     450.00    64.9846  
    440.0000     450.00    64.1284  
    460.0000     450.00    63.3138  
    480.0000     450.00    62.5372  
    500.0000     450.00    61.7955  


      0.0000     500.00   126.9334  
     20.0000     500.00   114.4916  
     40.0000     500.00   106.3655  
     60.0000     500.00   100.3687  
     80.0000     500.00    95.6442  
    100.0000     500.00    91.7641  
    120.0000     500.00    88.4835  
    140.0000     500.00    85.6499  
    160.0000     500.00    83.1617  
    180.0000     500.00    80.9482  
    200.0000     500.00    78.9579  
    220.0000     500.00    77.1526  
    240.0000     500.00    75.5030  
    260.0000     500.00    73.9860  
    280.0000     500.00    72.5835  
    300.0000     500.00    71.2804  
    320.0000     500.00    70.0647  
    340.0000     500.00    68.9263  
    360.0000     500.00    67.8567  
    380.0000     500.00    66.8487  
    400.0000     500.00    65.8962  
    420.0000     500.00    64.9938  
    440.0000     500.00    64.1371  
    460.0000     500.00    63.3219  
    480.0000     500.00    62.5448  
    500.0000     500.00    61.8028  


      0.0000     550.00   127.1846  
     20.0000     550.00   114.6345  
     40.0000     550.00   106.4627  
     60.0000     550.00   100.4408  
     80.0000     550.00    95.7010  
    100.0000     550.00    91.8106  
    120.0000     550.00    88.5229  
    140.0000     550.00    85.6839  
    160.0000     550.00    83.1917  
    180.0000     550.00    80.9748  
    200.0000     550.00    78.9819  
    220.0000     550.00    77.1744  
    240.0000     550.00    75.5229  
    260.0000     550.00    74.0043  
    280.0000     550.00    72.6003  
    300.0000     550.00    71.2960  
    320.0000     550.00    70.0792  
    340.0000     550.00    68.9398  
    360.0000     550.00    67.8693  
    380.0000     550.00    66.8604  
    400.0000     550.00    65.9072  
    420.0000     550.00    65.0041  
    440.0000     550.00    64.1468  
    460.0000     550.00    63.3310  
    480.0000     550.00    62.5535  
    500.0000     550.00    61.8109  


      0.0000     600.00   127.4430  
     20.0000     600.00   114.7818  
     40.0000     600.00   106.5632  
     60.0000     600.00   100.5157  
     80.0000     600.00    95.7601  
    100.0000     600.00    91.8593  
    120.0000     600.00    88.5641  
    140.0000     600.00    85.7197  
    160.0000     600.00    83.2233  
    180.0000     600.00    81.0031  
    200.0000     600.00    79.0074  
    220.0000     600.00    77.1976  
    240.0000     600.00    75.5441  
    260.0000     600.00    74.0238  
    280.0000     600.00    72.6183  
    300.0000     600.00    71.3127  
    320.0000     600.00    70.0947  
    340.0000     600.00    68.9543  
    360.0000     600.00    67.8828  
    380.0000     600.00    66.8731  
    400.0000     600.00    65.9191  
    420.0000     600.00    65.0153  
    440.0000     600.00    64.1573  
    460.0000     600.00    63.3410  
    480.0000     600.00    62.5629  
    500.0000     600.00    61.8198  


      0.0000     650.00   127.7080  
     20.0000     650.00   114.9328  
     40.0000     650.00   106.6666  
     60.0000     650.00   100.5930  
     80.0000     650.00    95.8213  
    100.0000     650.00    91.9097  
    120.0000     650.00    88.6070  
    140.0000     650.00    85.7570  
    160.0000     650.00    83.2562  
    180.0000     650.00    81.0326  
    200.0000     650.00    79.0341  
    220.0000     650.00    77.2220  
    240.0000     650.00    75.5665  
    260.0000     650.00    74.0444  
    280.0000     650.00    72.6374  
    300.0000     650.00    71.3304  
    320.0000     650.00    70.1112  
    340.0000     650.00    68.9697  
    360.0000     650.00    67.8972  
    380.0000     650.00    66.8867  
    400.0000     650.00    65.9318  
    420.0000     650.00    65.0273  
    440.0000     650.00    64.1687  
    460.0000     650.00    63.3517  
    480.0000     650.00    62.5730  
    500.0000     650.00    61.8294  


      0.0000     700.00   127.9790  
     20.0000     700.00   115.0871  
     40.0000     700.00   106.7722  
     60.0000     700.00   100.6721  
     80.0000     700.00    95.8840  
    100.0000     700.00    91.9616  
    120.0000     700.00    88.6512  
    140.0000     700.00    85.7955  
    160.0000     700.00    83.2904  
    180.0000     700.00    81.0632  
    200.0000     700.00    79.0619  
    220.0000     700.00    77.2473  
    240.0000     700.00    75.5897  
    260.0000     700.00    74.0659  
    280.0000     700.00    72.6573  
    300.0000     700.00    71.3489  
    320.0000     700.00    70.1285  
    340.0000     700.00    68.9859  
    360.0000     700.00    67.9124  
    380.0000     700.00    66.9009  
    400.0000     700.00    65.9453  
    420.0000     700.00    65.0400  
    440.0000     700.00    64.1806  
    460.0000     700.00    63.3631  
    480.0000     700.00    62.5838  
    500.0000     700.00    61.8397  


      0.0000     750.00   128.2557  
     20.0000     750.00   115.2441  
     40.0000     750.00   106.8800  
     60.0000     750.00   100.7529  
     80.0000     750.00    95.9482  
    100.0000     750.00    92.0147  
    120.0000     750.00    88.6966  
    140.0000     750.00    85.8351  
    160.0000     750.00    83.3255  
    180.0000     750.00    81.0948  
    200.0000     750.00    79.0905  
    220.0000     750.00    77.2735  
    240.0000     750.00    75.6138  
    260.0000     750.00    74.0882  
    280.0000     750.00    72.6780  
    300.0000     750.00    71.3682  
    320.0000     750.00    70.1465  
    340.0000     750.00    69.0027  
    360.0000     750.00    67.9282  
    380.0000     750.00    66.9158  
    400.0000     750.00    65.9593  
    420.0000     750.00    65.0533  
    440.0000     750.00    64.1932  
    460.0000     750.00    63.3750  
    480.0000     750.00    62.5951  
    500.0000     750.00    61.8504  


      0.0000     800.00   128.5377  
     20.0000     800.00   115.4038  
     40.0000     800.00   106.9895  
     60.0000     800.00   100.8351  
     80.0000     800.00    96.0136  
    100.0000     800.00    92.0689  
    120.0000     800.00    88.7429  
    140.0000     800.00    85.8756  
    160.0000     800.00    83.3614  
    180.0000     800.00    81.1271  
    200.0000     800.00    79.1199  
    220.0000     800.00    77.3004  
    240.0000     800.00    75.6386  
    260.0000     800.00    74.1111  
    280.0000     800.00    72.6993  
    300.0000     800.00    71.3881  
    320.0000     800.00    70.1651  
    340.0000     800.00    69.0202  
    360.0000     800.00    67.9446  
    380.0000     800.00    66.9313  
    400.0000     800.00    65.9739  
    420.0000     800.00    65.0671  
    440.0000     800.00    64.2063  
    460.0000     800.00    63.3874  
    480.0000     800.00    62.6069  
    500.0000     800.00    61.8616  


      0.0000     850.00   128.8251  
     20.0000     850.00   115.5659  
     40.0000     850.00   107.1007  
     60.0000     850.00   100.9186  
     80.0000     850.00    96.0801  
    100.0000     850.00    92.1241  
    120.0000     850.00    88.7900  
    140.0000     850.00    85.9168  
    160.0000     850.00    83.3981  
    180.0000     850.00    81.1601  
    200.0000     850.00    79.1499  
    220.0000     850.00    77.3279  
    240.0000     850.00    75.6640  
    260.0000     850.00    74.1346  
    280.0000     850.00    72.7212  
    300.0000     850.00    71.4085  
    320.0000     850.00    70.1842  
    340.0000     850.00    69.0381  
    360.0000     850.00    67.9615  
    380.0000     850.00    66.9472  
    400.0000     850.00    65.9889  
    420.0000     850.00    65.0813  
    440.0000     850.00    64.2198  
    460.0000     850.00    63.4002  
    480.0000     850.00    62.6191  
    500.0000     850.00    61.8733  


      0.0000     900.00   129.1176  
     20.0000     900.00   115.7301  
     40.0000     900.00   107.2133  
     60.0000     900.00   101.0032  
     80.0000     900.00    96.1474  
    100.0000     900.00    92.1800  
    120.0000     900.00    88.8379  
    140.0000     900.00    85.9587  
    160.0000     900.00    83.4354  
    180.0000     900.00    81.1937  
    200.0000     900.00    79.1805  
    220.0000     900.00    77.3560  
    240.0000     900.00    75.6899  
    260.0000     900.00    74.1586  
    280.0000     900.00    72.7435  
    300.0000     900.00    71.4294  
    320.0000     900.00    70.2038  
    340.0000     900.00    69.0565  
    360.0000     900.00    67.9788  
    380.0000     900.00    66.9635  
    400.0000     900.00    66.0044  
    420.0000     900.00    65.0960  
    440.0000     900.00    64.2337  
    460.0000     900.00    63.4134  
    480.0000     900.00    62.6316  
    500.0000     900.00    61.8852  


      0.0000     950.00   129.4153  
     20.0000     950.00   115.8965  
     40.0000     950.00   107.3273  
     60.0000     950.00   101.0888  
     80.0000     950.00    96.2157  
    100.0000     950.00    92.2367  
    120.0000     950.00    88.8864  
    140.0000     950.00    86.0012  
    160.0000     950.00    83.4732  
    180.0000     950.00    81.2279  
    200.0000     950.00    79.2116  
    220.0000     950.00    77.3845  
    240.0000     950.00    75.7162  
    260.0000     950.00    74.1831  
    280.0000     950.00    72.7663  
    300.0000     950.00    71.4506  
    320.0000     950.00    70.2237  
    340.0000     950.00    69.0752  
    360.0000     950.00    67.9965  
    380.0000     950.00    66.9802  
    400.0000     950.00    66.0202  
    420.0000     950.00    65.1109  
    440.0000     950.00    64.2479  
    460.0000     950.00    63.4269  
    480.0000     950.00    62.6445  
    500.0000     950.00    61.8975  


      0.0000    1000.00   129.7181  
     20.0000    1000.00   116.0648  
     40.0000    1000.00   107.4426  
     60.0000    1000.00   101.1753  
     80.0000    1000.00    96.2846  
    100.0000    1000.00    92.2939  
    120.0000    1000.00    88.9355  
    140.0000    1000.00    86.0442  
    160.0000    1000.00    83.5115  
    180.0000    1000.00    81.2624  
    200.0000    1000.00    79.2431  
    220.0000    1000.00    77.4134  
    240.0000    1000.00    75.7429  
    260.0000    1000.00    74.2079  
    280.0000    1000.00    72.7894  
    300.0000    1000.00    71.4723  
